5,    channel 5 SRF extracted from pub.rar (FY3D_MERSI_SRF_CH05_Pub.txt) (received October 2018)
Number of data points:
82
Wavenumber (cm-1)   Filter response
     7037.297700       0.010129
     7042.253500       0.011634
     7047.216300       0.013935
     7052.186200       0.016236
     7057.163000       0.018911
     7062.146900       0.021585
     7067.137800       0.025169
     7072.135800       0.028753
     7077.140800       0.034196
     7082.153000       0.039639
     7087.172200       0.047861
     7092.198600       0.056083
     7097.232100       0.067843
     7102.272700       0.079604
     7107.320500       0.097044
     7112.375500       0.114484
     7117.437700       0.140504
     7122.507100       0.166525
     7127.583700       0.205178
     7132.667600       0.243832
     7137.758700       0.297952
     7142.857100       0.352073
     7147.962800       0.421089
     7153.075800       0.490106
     7158.196100       0.568063
     7163.323800       0.646021
     7168.458800       0.717231
     7173.601100       0.788441
     7178.750900       0.841844
     7183.908000       0.895246
     7189.072600       0.927868
     7194.244600       0.960490
     7199.424000       0.975070
     7204.611000       0.989651
     7209.805300       0.994489
     7215.007200       0.999326
     7220.216600       0.999663
     7225.433500       1.000000
     7230.658000       0.998490
     7235.890000       0.996979
     7241.129600       0.994327
     7246.376800       0.991675
     7251.631600       0.985865
     7256.894000       0.980054
     7262.164100       0.969780
     7267.441900       0.959506
     7272.727300       0.941807
     7278.020400       0.924108
     7283.321200       0.895497
     7288.629700       0.866887
     7293.946000       0.823958
     7299.270100       0.781029
     7304.601900       0.727057
     7309.941500       0.673084
     7315.289000       0.612792
     7320.644200       0.552500
     7326.007300       0.492746
     7331.378300       0.432991
     7336.757200       0.380635
     7342.143900       0.328279
     7347.538600       0.282022
     7352.941200       0.235765
     7358.351700       0.197388
     7363.770300       0.159012
     7369.196800       0.132643
     7374.631300       0.106273
     7380.073800       0.090748
     7385.524400       0.075223
     7390.983000       0.066820
     7396.449700       0.058418
     7401.924500       0.054042
     7407.407400       0.049667
     7412.898400       0.044442
     7418.397600       0.039217
     7423.905000       0.032609
     7429.420500       0.026001
     7434.944200       0.021066
     7440.476200       0.016132
     7446.016400       0.013606
     7451.564800       0.011079
     7457.121600       0.010429
     7462.686600       0.009778
