10,    channel 10 SRF extracted from pub.rar (FY3D_MERSI_SRF_CH10_Pub.txt) (received October 2018)
Number of data points:
104
Wavenumber (cm-1)   Filter response
    19342.359800       0.009240
    19361.084200       0.009950
    19379.845000       0.012082
    19398.642100       0.011372
    19417.475700       0.012082
    19436.346000       0.014925
    19455.252900       0.014925
    19474.196700       0.017768
    19493.177400       0.019190
    19512.195100       0.022033
    19531.250000       0.022033
    19550.342100       0.024876
    19569.471600       0.028429
    19588.638600       0.030561
    19607.843100       0.034826
    19627.085400       0.039090
    19646.365400       0.044776
    19665.683400       0.049041
    19685.039400       0.058280
    19704.433500       0.068941
    19723.865900       0.079602
    19743.336600       0.095238
    19762.845800       0.111585
    19782.393700       0.137171
    19801.980200       0.159915
    19821.605600       0.191187
    19841.269800       0.228145
    19860.973200       0.270789
    19880.715700       0.320540
    19900.497500       0.375977
    19920.318700       0.442786
    19940.179500       0.491116
    19960.079800       0.557925
    19980.020000       0.618337
    20000.000000       0.672353
    20020.020000       0.724947
    20040.080200       0.776830
    20060.180500       0.824449
    20080.321300       0.864961
    20100.502500       0.898365
    20120.724300       0.928927
    20140.986900       0.942431
    20161.290300       0.968728
    20181.634700       0.995025
    20202.020200       0.972281
    20222.446900       0.990760
    20242.915000       0.999289
    20263.424500       1.000000
    20283.975700       0.996446
    20304.568500       0.992893
    20325.203300       0.990050
    20345.880000       0.982942
    20366.598800       0.976546
    20387.359800       0.967306
    20408.163300       0.956645
    20429.009200       0.950249
    20449.897800       0.947406
    20470.829100       0.941720
    20491.803300       0.924662
    20512.820500       0.918977
    20533.880900       0.905473
    20554.984600       0.889126
    20576.131700       0.874200
    20597.322300       0.852878
    20618.556700       0.835821
    20639.834900       0.810945
    20661.157000       0.785359
    20682.523300       0.749822
    20703.933700       0.707178
    20725.388600       0.668799
    20746.888000       0.620469
    20768.432000       0.576404
    20790.020800       0.519545
    20811.654500       0.471926
    20833.333300       0.423596
    20855.057400       0.377399
    20876.826700       0.334044
    20898.641600       0.297797
    20920.502100       0.262260
    20942.408400       0.228856
    20964.360600       0.204691
    20986.358900       0.181237
    21008.403400       0.157783
    21030.494200       0.142857
    21052.631600       0.125800
    21074.815600       0.111585
    21097.046400       0.098792
    21119.324200       0.087420
    21141.649000       0.076048
    21164.021200       0.065387
    21186.440700       0.057569
    21208.907700       0.049041
    21231.422500       0.044065
    21253.985100       0.036958
    21276.595700       0.031272
    21299.254500       0.027719
    21321.961600       0.024165
    21344.717200       0.021322
    21367.521400       0.018479
    21390.374300       0.016347
    21413.276200       0.012793
    21436.227200       0.011372
    21459.227500       0.011372
    21482.277100       0.000000
