22,    channel 22 SRF extracted from pub.rar (FY3D_MERSI_SRF_CH22_Pub.txt) (received October 2018)
Number of data points:
803
Wavenumber (cm-1)   Filter response
     1308.558000       0.009006
     1308.729200       0.009188
     1308.900500       0.009369
     1309.071900       0.009561
     1309.243300       0.009753
     1309.414700       0.009963
     1309.586200       0.010173
     1309.757700       0.010397
     1309.929300       0.010622
     1310.100900       0.010865
     1310.272500       0.011107
     1310.444200       0.011373
     1310.616000       0.011639
     1310.787800       0.011927
     1310.959600       0.012215
     1311.131500       0.012520
     1311.303400       0.012825
     1311.475400       0.013142
     1311.647400       0.013459
     1311.819500       0.013791
     1311.991600       0.014122
     1312.163800       0.014469
     1312.336000       0.014815
     1312.508200       0.015175
     1312.680500       0.015534
     1312.852800       0.015907
     1313.025200       0.016280
     1313.197600       0.016676
     1313.370100       0.017072
     1313.542600       0.017492
     1313.715200       0.017912
     1313.887800       0.018355
     1314.060400       0.018798
     1314.233100       0.019268
     1314.405900       0.019738
     1314.578700       0.020237
     1314.751500       0.020735
     1314.924400       0.021260
     1315.097300       0.021786
     1315.270300       0.022338
     1315.443300       0.022890
     1315.616400       0.023468
     1315.789500       0.024046
     1315.962600       0.024652
     1316.135800       0.025259
     1316.309100       0.025898
     1316.482400       0.026537
     1316.655700       0.027206
     1316.829100       0.027874
     1317.002500       0.028580
     1317.176000       0.029286
     1317.349500       0.030039
     1317.523100       0.030792
     1317.696700       0.031587
     1317.870300       0.032382
     1318.044000       0.033225
     1318.217800       0.034068
     1318.391600       0.034962
     1318.565400       0.035857
     1318.739300       0.036800
     1318.913200       0.037743
     1319.087200       0.038744
     1319.261200       0.039745
     1319.435300       0.040806
     1319.609400       0.041867
     1319.783600       0.042988
     1319.957800       0.044108
     1320.132000       0.045298
     1320.306300       0.046487
     1320.480700       0.047743
     1320.655000       0.048998
     1320.829500       0.050325
     1321.004000       0.051651
     1321.178500       0.053069
     1321.353100       0.054487
     1321.527700       0.055992
     1321.702400       0.057498
     1321.877100       0.059095
     1322.051800       0.060693
     1322.226600       0.062393
     1322.401500       0.064094
     1322.576400       0.065889
     1322.751300       0.067683
     1322.926300       0.069591
     1323.101300       0.071499
     1323.276400       0.073538
     1323.451600       0.075578
     1323.626700       0.077741
     1323.802000       0.079904
     1323.977200       0.082204
     1324.152500       0.084504
     1324.327900       0.086946
     1324.503300       0.089388
     1324.678800       0.091968
     1324.854300       0.094549
     1325.029800       0.097299
     1325.205400       0.100050
     1325.381000       0.102980
     1325.556700       0.105911
     1325.732500       0.109016
     1325.908200       0.112122
     1326.084100       0.115428
     1326.259900       0.118734
     1326.435900       0.122231
     1326.611800       0.125729
     1326.787800       0.129434
     1326.963900       0.133139
     1327.140000       0.137089
     1327.316200       0.141040
     1327.492400       0.145228
     1327.668600       0.149416
     1327.844900       0.153851
     1328.021200       0.158286
     1328.197600       0.162983
     1328.374100       0.167680
     1328.550600       0.172630
     1328.727100       0.177579
     1328.903700       0.182805
     1329.080300       0.188030
     1329.256900       0.193550
     1329.433700       0.199070
     1329.610400       0.204876
     1329.787200       0.210683
     1329.964100       0.216776
     1330.141000       0.222869
     1330.317900       0.229250
     1330.494900       0.235631
     1330.672000       0.242299
     1330.849100       0.248967
     1331.026200       0.255921
     1331.203400       0.262875
     1331.380600       0.270127
     1331.557900       0.277379
     1331.735300       0.284911
     1331.912600       0.292442
     1332.090000       0.300222
     1332.267500       0.308003
     1332.445000       0.316044
     1332.622600       0.324086
     1332.800200       0.332368
     1332.977900       0.340649
     1333.155600       0.349144
     1333.333300       0.357640
     1333.511100       0.366367
     1333.689000       0.375094
     1333.866900       0.384008
     1334.044800       0.392922
     1334.222800       0.402001
     1334.400900       0.411080
     1334.578900       0.420336
     1334.757100       0.429593
     1334.935300       0.438975
     1335.113500       0.448358
     1335.291800       0.457866
     1335.470100       0.467373
     1335.648500       0.476999
     1335.826900       0.486625
     1336.005300       0.496311
     1336.183900       0.505997
     1336.362400       0.515760
     1336.541000       0.525524
     1336.719700       0.535334
     1336.898400       0.545144
     1337.077100       0.554948
     1337.256000       0.564751
     1337.434800       0.574576
     1337.613700       0.584400
     1337.792600       0.594190
     1337.971600       0.603979
     1338.150700       0.613695
     1338.329800       0.623411
     1338.508900       0.633076
     1338.688100       0.642740
     1338.867300       0.652277
     1339.046600       0.661813
     1339.225900       0.671209
     1339.405300       0.680605
     1339.584700       0.689859
     1339.764200       0.699113
     1339.943700       0.708142
     1340.123300       0.717171
     1340.302900       0.725990
     1340.482600       0.734810
     1340.662300       0.743388
     1340.842000       0.751967
     1341.021900       0.760239
     1341.201700       0.768510
     1341.381600       0.776500
     1341.561600       0.784490
     1341.741600       0.792154
     1341.921600       0.799817
     1342.101700       0.807114
     1342.281900       0.814412
     1342.462100       0.821360
     1342.642300       0.828309
     1342.822600       0.834881
     1343.003000       0.841453
     1343.183300       0.847634
     1343.363800       0.853814
     1343.544300       0.859613
     1343.724800       0.865411
     1343.905400       0.870824
     1344.086000       0.876236
     1344.266700       0.881253
     1344.447400       0.886269
     1344.628200       0.890909
     1344.809000       0.895549
     1344.989900       0.899835
     1345.170800       0.904121
     1345.351800       0.908039
     1345.532800       0.911956
     1345.713900       0.915540
     1345.895000       0.919124
     1346.076200       0.922391
     1346.257400       0.925658
     1346.438700       0.928599
     1346.620000       0.931540
     1346.801300       0.934214
     1346.982800       0.936889
     1347.164200       0.939301
     1347.345700       0.941714
     1347.527300       0.943869
     1347.708900       0.946025
     1347.890600       0.947970
     1348.072300       0.949915
     1348.254000       0.951634
     1348.435800       0.953353
     1348.617700       0.954876
     1348.799600       0.956399
     1348.981500       0.957766
     1349.163500       0.959133
     1349.345600       0.960329
     1349.527700       0.961524
     1349.709800       0.962570
     1349.892000       0.963616
     1350.074300       0.964521
     1350.256500       0.965426
     1350.438900       0.966186
     1350.621300       0.966947
     1350.803700       0.967592
     1350.986200       0.968237
     1351.168800       0.968768
     1351.351400       0.969299
     1351.534000       0.969714
     1351.716700       0.970129
     1351.899400       0.970433
     1352.082200       0.970738
     1352.265000       0.970927
     1352.447900       0.971116
     1352.630900       0.971205
     1352.813900       0.971294
     1352.996900       0.971294
     1353.180000       0.971295
     1353.363100       0.971200
     1353.546300       0.971106
     1353.729500       0.970930
     1353.912800       0.970753
     1354.096100       0.970491
     1354.279500       0.970229
     1354.463000       0.969888
     1354.646400       0.969547
     1354.830000       0.969147
     1355.013600       0.968747
     1355.197200       0.968280
     1355.380900       0.967813
     1355.564600       0.967294
     1355.748400       0.966775
     1355.932200       0.966213
     1356.116100       0.965652
     1356.300000       0.965041
     1356.484000       0.964431
     1356.668000       0.963808
     1356.852100       0.963185
     1357.036200       0.962554
     1357.220400       0.961924
     1357.404600       0.961289
     1357.588900       0.960653
     1357.773300       0.960045
     1357.957600       0.959437
     1358.142100       0.958849
     1358.326500       0.958261
     1358.511100       0.957705
     1358.695700       0.957149
     1358.880300       0.956641
     1359.065000       0.956132
     1359.249700       0.955665
     1359.434500       0.955197
     1359.619300       0.954781
     1359.804200       0.954364
     1359.989100       0.954001
     1360.174100       0.953637
     1360.359100       0.953327
     1360.544200       0.953018
     1360.729400       0.952772
     1360.914500       0.952526
     1361.099800       0.952346
     1361.285100       0.952166
     1361.470400       0.952045
     1361.655800       0.951924
     1361.841200       0.951862
     1362.026700       0.951799
     1362.212200       0.951797
     1362.397800       0.951795
     1362.583500       0.951827
     1362.769100       0.951859
     1362.954900       0.951920
     1363.140700       0.951981
     1363.326500       0.952069
     1363.512400       0.952158
     1363.698300       0.952246
     1363.884300       0.952335
     1364.070400       0.952427
     1364.256500       0.952520
     1364.442600       0.952610
     1364.628800       0.952701
     1364.815100       0.952781
     1365.001400       0.952862
     1365.187700       0.952936
     1365.374100       0.953009
     1365.560600       0.953065
     1365.747100       0.953120
     1365.933600       0.953156
     1366.120200       0.953192
     1366.306900       0.953207
     1366.493600       0.953221
     1366.680300       0.953199
     1366.867100       0.953178
     1367.054000       0.953119
     1367.240900       0.953060
     1367.427900       0.952971
     1367.614900       0.952882
     1367.801900       0.952763
     1367.989100       0.952643
     1368.176200       0.952493
     1368.363400       0.952342
     1368.550700       0.952185
     1368.738000       0.952028
     1368.925400       0.951866
     1369.112800       0.951704
     1369.300300       0.951540
     1369.487800       0.951377
     1369.675400       0.951231
     1369.863000       0.951085
     1370.050700       0.950952
     1370.238400       0.950819
     1370.426200       0.950706
     1370.614000       0.950592
     1370.801900       0.950503
     1370.989900       0.950414
     1371.177800       0.950347
     1371.365900       0.950281
     1371.554000       0.950251
     1371.742100       0.950221
     1371.930300       0.950226
     1372.118600       0.950232
     1372.306800       0.950277
     1372.495200       0.950322
     1372.683600       0.950417
     1372.872000       0.950512
     1373.060600       0.950655
     1373.249100       0.950799
     1373.437700       0.950984
     1373.626400       0.951170
     1373.815100       0.951398
     1374.003800       0.951627
     1374.192700       0.951895
     1374.381500       0.952163
     1374.570400       0.952454
     1374.759400       0.952746
     1374.948400       0.953064
     1375.137500       0.953383
     1375.326600       0.953720
     1375.515800       0.954058
     1375.705000       0.954403
     1375.894300       0.954749
     1376.083700       0.955107
     1376.273100       0.955465
     1376.462500       0.955826
     1376.652000       0.956186
     1376.841500       0.956549
     1377.031100       0.956911
     1377.220800       0.957274
     1377.410500       0.957636
     1377.600200       0.957989
     1377.790000       0.958343
     1377.979900       0.958689
     1378.169800       0.959035
     1378.359800       0.959375
     1378.549800       0.959714
     1378.739800       0.960043
     1378.930000       0.960372
     1379.120100       0.960695
     1379.310300       0.961017
     1379.500600       0.961339
     1379.690900       0.961662
     1379.881300       0.961982
     1380.071800       0.962302
     1380.262200       0.962628
     1380.452800       0.962955
     1380.643400       0.963295
     1380.834000       0.963636
     1381.024700       0.963988
     1381.215500       0.964340
     1381.406300       0.964714
     1381.597100       0.965087
     1381.788000       0.965485
     1381.979000       0.965882
     1382.170000       0.966303
     1382.361100       0.966724
     1382.552200       0.967174
     1382.743400       0.967624
     1382.934600       0.968102
     1383.125900       0.968581
     1383.317200       0.969085
     1383.508600       0.969589
     1383.700000       0.970120
     1383.891500       0.970652
     1384.083000       0.971208
     1384.274600       0.971763
     1384.466300       0.972330
     1384.658000       0.972897
     1384.849700       0.973481
     1385.041600       0.974066
     1385.233400       0.974651
     1385.425300       0.975236
     1385.617300       0.975813
     1385.809300       0.976389
     1386.001400       0.976960
     1386.193500       0.977530
     1386.385700       0.978068
     1386.577900       0.978606
     1386.770200       0.979115
     1386.962600       0.979624
     1387.154900       0.980093
     1387.347400       0.980562
     1387.539900       0.980975
     1387.732400       0.981389
     1387.925100       0.981752
     1388.117700       0.982115
     1388.310400       0.982415
     1388.503200       0.982714
     1388.696000       0.982946
     1388.888900       0.983178
     1389.081800       0.983344
     1389.274800       0.983511
     1389.467800       0.983606
     1389.660900       0.983702
     1389.854100       0.983726
     1390.047300       0.983751
     1390.240500       0.983714
     1390.433800       0.983677
     1390.627200       0.983578
     1390.820600       0.983478
     1391.014000       0.983322
     1391.207600       0.983167
     1391.401100       0.982977
     1391.594800       0.982788
     1391.788400       0.982557
     1391.982200       0.982326
     1392.176000       0.982076
     1392.369800       0.981825
     1392.563700       0.981566
     1392.757700       0.981307
     1392.951700       0.981038
     1393.145700       0.980768
     1393.339800       0.980509
     1393.534000       0.980250
     1393.728200       0.979999
     1393.922500       0.979747
     1394.116800       0.979513
     1394.311200       0.979279
     1394.505600       0.979073
     1394.700100       0.978866
     1394.894700       0.978684
     1395.089300       0.978503
     1395.283900       0.978357
     1395.478600       0.978212
     1395.673400       0.978105
     1395.868200       0.977999
     1396.063100       0.977926
     1396.258000       0.977852
     1396.453000       0.977809
     1396.648000       0.977766
     1396.843100       0.977754
     1397.038300       0.977742
     1397.233500       0.977742
     1397.428700       0.977741
     1397.624000       0.977750
     1397.819400       0.977759
     1398.014800       0.977777
     1398.210300       0.977795
     1398.405800       0.977816
     1398.601400       0.977837
     1398.797000       0.977863
     1398.992700       0.977889
     1399.188500       0.977930
     1399.384300       0.977971
     1399.580100       0.978027
     1399.776000       0.978084
     1399.972000       0.978159
     1400.168000       0.978235
     1400.364100       0.978339
     1400.560200       0.978442
     1400.756400       0.978570
     1400.952600       0.978699
     1401.148900       0.978862
     1401.345300       0.979026
     1401.541700       0.979223
     1401.738200       0.979419
     1401.934700       0.979658
     1402.131200       0.979897
     1402.327900       0.980197
     1402.524500       0.980497
     1402.721300       0.980853
     1402.918100       0.981209
     1403.114900       0.981635
     1403.311800       0.982061
     1403.508800       0.982568
     1403.705800       0.983076
     1403.902800       0.983651
     1404.100000       0.984225
     1404.297100       0.984857
     1404.494400       0.985489
     1404.691700       0.986184
     1404.889000       0.986880
     1405.086400       0.987599
     1405.283900       0.988318
     1405.481400       0.989058
     1405.678900       0.989798
     1405.876600       0.990548
     1406.074200       0.991298
     1406.272000       0.992027
     1406.469800       0.992757
     1406.667600       0.993476
     1406.865500       0.994195
     1407.063500       0.994863
     1407.261500       0.995532
     1407.459500       0.996148
     1407.657700       0.996765
     1407.855800       0.997313
     1408.054100       0.997862
     1408.252400       0.998302
     1408.450700       0.998743
     1408.649100       0.999087
     1408.847600       0.999431
     1409.046100       0.999645
     1409.244600       0.999859
     1409.443300       0.999929
     1409.642000       1.000000
     1409.840700       0.999937
     1410.039500       0.999874
     1410.238300       0.999678
     1410.437200       0.999481
     1410.636200       0.999150
     1410.835200       0.998818
     1411.034300       0.998367
     1411.233400       0.997915
     1411.432600       0.997341
     1411.631800       0.996767
     1411.831100       0.996082
     1412.030500       0.995396
     1412.229900       0.994616
     1412.429400       0.993836
     1412.628900       0.992957
     1412.828500       0.992077
     1413.028100       0.991116
     1413.227800       0.990156
     1413.427600       0.989112
     1413.627400       0.988067
     1413.827200       0.986952
     1414.027100       0.985837
     1414.227100       0.984672
     1414.427200       0.983507
     1414.627200       0.982285
     1414.827400       0.981063
     1415.027600       0.979787
     1415.227900       0.978511
     1415.428200       0.977186
     1415.628500       0.975860
     1415.829000       0.974474
     1416.029500       0.973088
     1416.230000       0.971636
     1416.430600       0.970185
     1416.631300       0.968667
     1416.832000       0.967149
     1417.032700       0.965537
     1417.233600       0.963925
     1417.434400       0.962221
     1417.635400       0.960517
     1417.836400       0.958711
     1418.037400       0.956906
     1418.238500       0.954992
     1418.439700       0.953079
     1418.640900       0.951056
     1418.842200       0.949033
     1419.043600       0.946870
     1419.245000       0.944707
     1419.446400       0.942411
     1419.647900       0.940115
     1419.849500       0.937665
     1420.051100       0.935215
     1420.252800       0.932609
     1420.454500       0.930004
     1420.656300       0.927230
     1420.858200       0.924456
     1421.060100       0.921473
     1421.262100       0.918489
     1421.464100       0.915308
     1421.666200       0.912127
     1421.868300       0.908694
     1422.070500       0.905261
     1422.272800       0.901574
     1422.475100       0.897888
     1422.677500       0.893918
     1422.879900       0.889948
     1423.082400       0.885632
     1423.284900       0.881316
     1423.487500       0.876671
     1423.690200       0.872027
     1423.892900       0.866974
     1424.095700       0.861922
     1424.298500       0.856458
     1424.501400       0.850994
     1424.704400       0.845097
     1424.907400       0.839199
     1425.110400       0.832829
     1425.313600       0.826459
     1425.516700       0.819628
     1425.720000       0.812797
     1425.923300       0.805493
     1426.126600       0.798189
     1426.330100       0.790397
     1426.533500       0.782604
     1426.737100       0.774377
     1426.940600       0.766150
     1427.144300       0.757501
     1427.348000       0.748852
     1427.551700       0.739800
     1427.755600       0.730748
     1427.959400       0.721393
     1428.163400       0.712038
     1428.367400       0.702347
     1428.571400       0.692657
     1428.775500       0.682764
     1428.979700       0.672871
     1429.183900       0.662797
     1429.388200       0.652722
     1429.592600       0.642510
     1429.797000       0.632297
     1430.001400       0.622065
     1430.205900       0.611832
     1430.410500       0.601548
     1430.615200       0.591264
     1430.819900       0.581043
     1431.024600       0.570822
     1431.229400       0.560664
     1431.434300       0.550506
     1431.639200       0.540447
     1431.844200       0.530388
     1432.049300       0.520474
     1432.254400       0.510561
     1432.459500       0.500780
     1432.664800       0.490999
     1432.870000       0.481381
     1433.075400       0.471762
     1433.280800       0.462304
     1433.486200       0.452847
     1433.691800       0.443549
     1433.897300       0.434251
     1434.103000       0.425116
     1434.308700       0.415981
     1434.514400       0.407004
     1434.720200       0.398027
     1434.926100       0.389200
     1435.132000       0.380373
     1435.338000       0.371697
     1435.544100       0.363021
     1435.750200       0.354502
     1435.956300       0.345984
     1436.162600       0.337619
     1436.368900       0.329255
     1436.575200       0.321058
     1436.781600       0.312861
     1436.988100       0.304837
     1437.194600       0.296813
     1437.401200       0.288968
     1437.607800       0.281123
     1437.814500       0.273505
     1438.021300       0.265887
     1438.228100       0.258489
     1438.435000       0.251090
     1438.641900       0.243942
     1438.848900       0.236794
     1439.056000       0.229900
     1439.263100       0.223006
     1439.470300       0.216384
     1439.677500       0.209763
     1439.884800       0.203455
     1440.092200       0.197147
     1440.299600       0.191144
     1440.507100       0.185140
     1440.714600       0.179450
     1440.922200       0.173759
     1441.129800       0.168383
     1441.337600       0.163007
     1441.545300       0.157944
     1441.753200       0.152880
     1441.961100       0.148139
     1442.169000       0.143398
     1442.377000       0.138964
     1442.585100       0.134529
     1442.793200       0.130360
     1443.001400       0.126191
     1443.209700       0.122298
     1443.418000       0.118405
     1443.626400       0.114744
     1443.834800       0.111082
     1444.043300       0.107656
     1444.251900       0.104230
     1444.460500       0.101005
     1444.669200       0.097780
     1444.877900       0.094714
     1445.086700       0.091649
     1445.295600       0.088753
     1445.504500       0.085856
     1445.713500       0.083091
     1445.922500       0.080325
     1446.131600       0.077696
     1446.340800       0.075067
     1446.550000       0.072558
     1446.759300       0.070049
     1446.968600       0.067650
     1447.178000       0.065252
     1447.387500       0.062970
     1447.597000       0.060688
     1447.806600       0.058523
     1448.016200       0.056358
     1448.225900       0.054311
     1448.435700       0.052263
     1448.645500       0.050340
     1448.855400       0.048417
     1449.065400       0.046616
     1449.275400       0.044815
     1449.485400       0.043147
     1449.695600       0.041479
     1449.905800       0.039948
     1450.116000       0.038417
     1450.326300       0.037023
     1450.536700       0.035628
     1450.747100       0.034377
     1450.957600       0.033125
     1451.168200       0.032015
     1451.378800       0.030904
     1451.589500       0.029918
     1451.800200       0.028931
     1452.011000       0.028076
     1452.221900       0.027220
     1452.432800       0.026466
     1452.643800       0.025711
     1452.854900       0.025047
     1453.066000       0.024382
     1453.277100       0.023800
     1453.488400       0.023219
     1453.699700       0.022691
     1453.911000       0.022163
     1454.122400       0.021695
     1454.333900       0.021227
     1454.545500       0.020794
     1454.757100       0.020362
     1454.968700       0.019968
     1455.180400       0.019574
     1455.392200       0.019199
     1455.604100       0.018823
     1455.816000       0.018454
     1456.028000       0.018086
     1456.240000       0.017723
     1456.452100       0.017360
     1456.664200       0.016986
     1456.876500       0.016612
     1457.088700       0.016230
     1457.301100       0.015849
     1457.513500       0.015468
     1457.725900       0.015087
     1457.938500       0.014703
     1458.151100       0.014318
     1458.363700       0.013949
     1458.576400       0.013579
     1458.789200       0.013235
     1459.002000       0.012892
     1459.214900       0.012569
     1459.427900       0.012246
     1459.640900       0.011943
     1459.854000       0.011640
     1460.067200       0.011358
     1460.280400       0.011075
     1460.493600       0.010806
     1460.707000       0.010537
     1460.920400       0.010281
     1461.133800       0.010026
     1461.347400       0.009784
     1461.560900       0.009542
     1461.774600       0.009315
     1461.988300       0.009087
