24,    channel 24 SRF extracted from pub.rar (FY3D_MERSI_SRF_CH24_Pub.txt) (received October 2018)
Number of data points:
303
Wavenumber (cm-1)   Filter response
      816.993500       0.000000
      817.661500       0.000000
      818.330600       0.000000
      819.000800       0.014445
      819.672100       0.016446
      820.344500       0.014695
      821.018100       0.014820
      821.692700       0.017884
      822.368400       0.016883
      823.045300       0.017384
      823.723200       0.018634
      824.402300       0.019260
      825.082500       0.016508
      825.763800       0.019260
      826.446300       0.019760
      827.129900       0.019510
      827.814600       0.019510
      828.500400       0.021386
      829.187400       0.019385
      829.875500       0.018509
      830.564800       0.017509
      831.255200       0.018009
      831.946800       0.015383
      832.639500       0.014507
      833.333300       0.011881
      834.028400       0.011131
      834.724500       0.010755
      835.421900       0.012256
      836.120400       0.012881
      836.820100       0.016133
      837.520900       0.016883
      838.223000       0.016758
      838.926200       0.015508
      839.630600       0.013757
      840.336100       0.012381
      841.042900       0.014632
      841.750800       0.014757
      842.460000       0.015758
      843.170300       0.016758
      843.881900       0.017509
      844.594600       0.014382
      845.308500       0.015383
      846.023700       0.015883
      846.740100       0.016758
      847.457600       0.017008
      848.176400       0.016883
      848.896400       0.016133
      849.617700       0.014507
      850.340100       0.013132
      851.063800       0.013507
      851.788800       0.015883
      852.514900       0.016383
      853.242300       0.017008
      853.971000       0.018634
      854.700900       0.017884
      855.432000       0.017384
      856.164400       0.016633
      856.898000       0.017134
      857.632900       0.016383
      858.369100       0.017509
      859.106500       0.017884
      859.845200       0.019009
      860.585200       0.018134
      861.326400       0.017634
      862.069000       0.017509
      862.812800       0.016633
      863.557900       0.016633
      864.304200       0.018009
      865.051900       0.020135
      865.800900       0.021261
      866.551100       0.023012
      867.302700       0.022011
      868.055600       0.022511
      868.809700       0.022636
      869.565200       0.022261
      870.322000       0.023762
      871.080100       0.027139
      871.839600       0.028389
      872.600300       0.031391
      873.362400       0.034267
      874.125900       0.037269
      874.890600       0.042271
      875.656700       0.050150
      876.424200       0.057154
      877.193000       0.067909
      877.963100       0.082416
      878.734600       0.096173
      879.507500       0.109180
      880.281700       0.126688
      881.057300       0.145948
      881.834200       0.165208
      882.612500       0.188844
      883.392200       0.215483
      884.173300       0.241996
      884.955800       0.269510
      885.739600       0.297774
      886.524800       0.327414
      887.311400       0.356053
      888.099500       0.383567
      888.888900       0.411206
      889.679700       0.439220
      890.472000       0.466108
      891.265600       0.491996
      892.060700       0.522761
      892.857100       0.548899
      893.655000       0.579290
      894.454400       0.608054
      895.255100       0.637569
      896.057300       0.662831
      896.861000       0.691096
      897.666100       0.713732
      898.472600       0.735493
      899.280600       0.758504
      900.090000       0.779890
      900.900900       0.798399
      901.713300       0.814157
      902.527100       0.827789
      903.342400       0.840795
      904.159100       0.850800
      904.977400       0.858929
      905.797100       0.866433
      906.618300       0.873062
      907.441000       0.878314
      908.265200       0.882441
      909.090900       0.887444
      909.918100       0.892071
      910.746800       0.894947
      911.577000       0.896073
      912.408800       0.900950
      913.242000       0.903577
      914.076800       0.906078
      914.913100       0.908954
      915.750900       0.912706
      916.590300       0.913332
      917.431200       0.914207
      918.273600       0.916083
      919.117600       0.919710
      919.963200       0.922961
      920.810300       0.927464
      921.659000       0.931591
      922.509200       0.936218
      923.361000       0.938719
      924.214400       0.940845
      925.069400       0.943972
      925.925900       0.948849
      926.784100       0.950850
      927.643800       0.952476
      928.505100       0.953227
      929.368000       0.952226
      930.232600       0.951976
      931.098700       0.952226
      931.966400       0.954102
      932.835800       0.957604
      933.706800       0.961981
      934.579400       0.962981
      935.453700       0.967109
      936.329600       0.970985
      937.207100       0.969235
      938.086300       0.968359
      938.967100       0.969110
      939.849600       0.969110
      940.733800       0.969485
      941.619600       0.975738
      942.507100       0.977989
      943.396200       0.983117
      944.287100       0.986243
      945.179600       0.988744
      946.073800       0.990245
      946.969700       0.993122
      947.867300       0.996123
      948.766600       0.998624
      949.667600       0.999125
      950.570300       1.000000
      951.474800       0.999375
      952.381000       0.998874
      953.288800       0.998374
      954.198500       0.997874
      955.109800       0.995248
      956.022900       0.993497
      956.937800       0.986743
      957.854400       0.979490
      958.772800       0.971611
      959.692900       0.959605
      960.614800       0.947349
      961.538500       0.935468
      962.463900       0.919335
      963.391100       0.902076
      964.320200       0.885693
      965.251000       0.867059
      966.183600       0.843797
      967.118000       0.820035
      968.054200       0.795898
      968.992200       0.770385
      969.932100       0.744997
      970.873800       0.720985
      971.817300       0.694097
      972.762600       0.665458
      973.709800       0.636943
      974.658900       0.606803
      975.609800       0.573537
      976.562500       0.543022
      977.517100       0.512256
      978.473600       0.480490
      979.431900       0.447599
      980.392200       0.417334
      981.354300       0.388319
      982.318300       0.359555
      983.284200       0.330790
      984.252000       0.304277
      985.221700       0.277264
      986.193300       0.250375
      987.166800       0.223987
      988.142300       0.201601
      989.119700       0.179715
      990.099000       0.161331
      991.080300       0.145323
      992.063500       0.130940
      993.048700       0.115808
      994.035800       0.104302
      995.024900       0.092421
      996.015900       0.081666
      997.009000       0.074287
      998.004000       0.067534
      999.001000       0.061781
     1000.000000       0.054027
     1001.001000       0.049900
     1002.004000       0.044272
     1003.009000       0.038644
     1004.016100       0.034017
     1005.025100       0.034517
     1006.036200       0.031391
     1007.049300       0.029515
     1008.064500       0.030390
     1009.081700       0.027264
     1010.101000       0.024137
     1011.122300       0.022886
     1012.145700       0.021386
     1013.171200       0.021761
     1014.198800       0.020385
     1015.228400       0.020260
     1016.260200       0.019885
     1017.294000       0.018009
     1018.329900       0.016133
     1019.368000       0.018634
     1020.408200       0.019385
     1021.450500       0.018634
     1022.494900       0.020635
     1023.541500       0.018884
     1024.590200       0.017884
     1025.641000       0.017759
     1026.694000       0.018634
     1027.749200       0.016258
     1028.806600       0.015758
     1029.866100       0.016258
     1030.927800       0.015258
     1031.991700       0.014882
     1033.057900       0.017259
     1034.126200       0.020010
     1035.196700       0.019385
     1036.269400       0.020510
     1037.344400       0.020760
     1038.421600       0.020260
     1039.501000       0.020135
     1040.582700       0.019885
     1041.666700       0.019760
     1042.752900       0.018259
     1043.841300       0.018134
     1044.932100       0.016383
     1046.025100       0.017134
     1047.120400       0.016258
     1048.218000       0.016508
     1049.317900       0.016508
     1050.420200       0.017384
     1051.524700       0.016883
     1052.631600       0.016508
     1053.740800       0.016008
     1054.852300       0.015758
     1055.966200       0.015258
     1057.082500       0.017384
     1058.201100       0.018884
     1059.322000       0.019885
     1060.445400       0.019885
     1061.571100       0.020260
     1062.699300       0.018384
     1063.829800       0.019510
     1064.962700       0.021261
     1066.098100       0.021886
     1067.235900       0.022886
     1068.376100       0.021386
     1069.518700       0.018634
     1070.663800       0.015008
     1071.811400       0.013757
     1072.961400       0.014257
     1074.113900       0.016133
     1075.268800       0.016258
     1076.426300       0.017509
     1077.586200       0.018009
     1078.748700       0.016508
     1079.913600       0.014007
     1081.081100       0.013507
     1082.251100       0.013632
     1083.423600       0.000000
     1084.598700       0.000000
